* Sea-Bird SBE19plus Data File:
* FileName = C:\Users\User\Desktop\WorkingFolder\HEX\MON10_13Aug2015053.hex
* Software Version 1.59
* Temperature SN =  7506
* Conductivity SN =  7506
* System UpLoad Time = Aug 13 2015 16:22:55
* ds
* SBE 19plus V 2.5.2  SERIAL NO. 7506    13 Aug 2015 16:14:43
* vbatt = 11.6, vlith =  8.6, ioper =  61.0 ma, ipump =  64.5 ma,
* iext01 =   5.6 ma, iext2345 =   3.3 ma, iserial =  27.8 ma
* status = not logging
* number of scans to average = 1
* samples = 195650, free = 2937594, casts = 68
* mode = profile, minimum cond freq = 0, pump delay = 75 sec
* autorun = no, ignore magnetic switch = no
* battery type = alkaline, battery cutoff =  7.5 volts
* pressure sensor = strain gauge, range = 508.0
* SBE 38 = no, WETLABS = yes, OPTODE = no, SBE63 = no, Gas Tension Device = no
* Ext Volt 0 = yes, Ext Volt 1 = no
* Ext Volt 2 = yes, Ext Volt 3 = no
* Ext Volt 4 = no, Ext Volt 5 = no
* echo characters = yes
* output format = raw HEX

* S>
*
* SBE 19plus V 2.5.2  SERIAL NO. 7506    13 Aug 2015 16:15:02
* temperature:  26-Jun-14
*     TA0 = 1.261374e-03
*     TA1 = 2.712933e-04
*     TA2 = -8.461344e-07
*     TA3 = 1.733276e-07
*     TOFFSET = 0.000000e+00
* conductivity:  26-Jun-14
*     G = -9.792998e-01
*     H = 1.471061e-01
*     I = -2.352037e-04
*     J = 3.954140e-05
*     CPCOR = -9.570000e-08
*     CTCOR = 3.250000e-06
*     CSLOPE = 1.000000e+00
* pressure S/N = 4157547, range = 508 psia:  20-Jun-14
*     PA0 = 1.321742e-01
*     PA1 = 1.547028e-03
*     PA2 = 7.529256e-12
*     PTCA0 = 5.274062e+05
*     PTCA1 = 6.817428e+00
*     PTCA2 = -1.369143e-01
*     PTCB0 = 2.521837e+01
*     PTCB1 = -3.250000e-04
*     PTCB2 = 0.000000e+00
*     PTEMPA0 = -7.054527e+01
*     PTEMPA1 = 5.028533e+01
*     PTEMPA2 = -2.206998e-01
*     POFFSET = 0.000000e+00
* volt 0: offset = -4.618527e-02, slope = 1.250448e+00
* volt 1: offset = -4.556105e-02, slope = 1.250200e+00
* volt 2: offset = -4.548842e-02, slope = 1.249971e+00
* volt 3: offset = -4.587053e-02, slope = 1.250295e+00
* volt 4: offset = -4.544105e-02, slope = 1.251388e+00
* volt 5: offset = -4.670421e-02, slope = 1.249342e+00
*     EXTFREQSF = 9.999918e-01
* dh
* cast  53 12 Aug 2015 10:36:03 samples 155285 to 156602, avg = 1, stop = mag switch

* S>
# nquan = 9
# nvalues = 1318                                  
# units = specified
# name 0 = scan: Scan Count
# name 1 = prdM: Pressure, Strain Gauge [db]
# name 2 = tv290C: Temperature [ITS-90, deg C]
# name 3 = c0uS/cm: Conductivity [uS/cm]
# name 4 = turbWETntu0: Turbidity, WET Labs ECO [NTU]
# name 5 = flECO-AFL: Fluorescence, WET Labs ECO-AFL/FL [mg/m^3]
# name 6 = sbeox0Mg/L: Oxygen, SBE 43 [mg/l]
# name 7 = par: PAR/Irradiance, Biospherical/Licor
# name 8 = flag:  0.000e+00
# span 0 =          1,       1318                 
# span 1 =     -0.655,     24.607                 
# span 2 =    12.5309,    19.6638                 
# span 3 =   0.779189,  84.395878                 
# span 4 =   -22.4555,    35.3080                 
# span 5 =    -6.7875,     8.4527                 
# span 6 =     5.5457,    10.3095                 
# span 7 = 1.0000e-12, 4.0978e+03                 
# span 8 = 0.0000e+00, 0.0000e+00                 
# interval = seconds: 0.25
# start_time = Aug 12 2015 10:36:03 [Instrument's time stamp, header]
# bad_flag = -9.990e-29
# <Sensors count="8" >
#   <sensor Channel="1" >
#     <!-- Count, Temperature -->
#     <TemperatureSensor SensorID="58" >
#       <SerialNumber>7506</SerialNumber>
#       <CalibrationDate>26-Jun-14</CalibrationDate>
#       <A0>1.26137383e-003</A0>
#       <A1>2.71293306e-004</A1>
#       <A2>-8.46134365e-007</A2>
#       <A3>1.73327598e-007</A3>
#       <Slope>1.00000000</Slope>
#       <Offset>0.0000</Offset>
#     </TemperatureSensor>
#   </sensor>
#   <sensor Channel="2" >
#     <!-- Frequency 0, Conductivity -->
#     <ConductivitySensor SensorID="3" >
#       <SerialNumber>7506</SerialNumber>
#       <CalibrationDate>26-Jun-14</CalibrationDate>
#       <UseG_J>1</UseG_J>
#       <!-- Cell const and series R are applicable only for wide range sensors. -->
#       <SeriesR>0.0000</SeriesR>
#       <CellConst>2000.0000</CellConst>
#       <ConductivityType>0</ConductivityType>
#       <Coefficients equation="0" >
#         <A>0.00000000e+000</A>
#         <B>0.00000000e+000</B>
#         <C>0.00000000e+000</C>
#         <D>0.00000000e+000</D>
#         <M>0.0</M>
#         <CPcor>-9.57000000e-008</CPcor>
#       </Coefficients>
#       <Coefficients equation="1" >
#         <G>-9.79299780e-001</G>
#         <H>1.47106091e-001</H>
#         <I>-2.35203711e-004</I>
#         <J>3.95414013e-005</J>
#         <CPcor>-9.57000000e-008</CPcor>
#         <CTcor>3.2500e-006</CTcor>
#         <!-- WBOTC not applicable unless ConductivityType = 1. -->
#         <WBOTC>0.00000000e+000</WBOTC>
#       </Coefficients>
#       <Slope>1.00000000</Slope>
#       <Offset>0.00000</Offset>
#     </ConductivitySensor>
#   </sensor>
#   <sensor Channel="3" >
#     <!-- Count, Pressure, Strain Gauge -->
#     <PressureSensor SensorID="46" >
#       <SerialNumber>7506</SerialNumber>
#       <CalibrationDate>20-Jun-14</CalibrationDate>
#       <PA0>1.32174204e-001</PA0>
#       <PA1>1.54702776e-003</PA1>
#       <PA2>7.52925639e-012</PA2>
#       <PTEMPA0>-7.05452734e+001</PTEMPA0>
#       <PTEMPA1>5.02853344e+001</PTEMPA1>
#       <PTEMPA2>-2.20699827e-001</PTEMPA2>
#       <PTCA0>5.27406123e+005</PTCA0>
#       <PTCA1>6.81742828e+000</PTCA1>
#       <PTCA2>-1.36914336e-001</PTCA2>
#       <PTCB0>2.52183750e+001</PTCB0>
#       <PTCB1>-3.25000000e-004</PTCB1>
#       <PTCB2>0.00000000e+000</PTCB2>
#       <Offset>0.000000</Offset>
#     </PressureSensor>
#   </sensor>
#   <sensor Channel="4" >
#     <!-- A/D voltage 0, Oxygen, SBE 43 -->
#     <OxygenSensor SensorID="38" >
#       <SerialNumber>2911</SerialNumber>
#       <CalibrationDate>27-Jun-14</CalibrationDate>
#       <Use2007Equation>1</Use2007Equation>
#       <CalibrationCoefficients equation="0" >
#         <!-- Coefficients for Owens-Millard equation. -->
#         <Boc>0.0000</Boc>
#         <Soc>0.0000e+000</Soc>
#         <offset>0.0000</offset>
#         <Pcor>0.00e+000</Pcor>
#         <Tcor>0.0000</Tcor>
#         <Tau>0.0</Tau>
#       </CalibrationCoefficients>
#       <CalibrationCoefficients equation="1" >
#         <!-- Coefficients for Sea-Bird equation - SBE calibration in 2007 and later. -->
#         <Soc>3.5354e-001</Soc>
#         <offset>-0.5145</offset>
#         <A>-2.1770e-003</A>
#         <B> 1.4331e-004</B>
#         <C>-2.5457e-006</C>
#         <D0> 2.5826e+000</D0>
#         <D1> 1.92634e-004</D1>
#         <D2>-4.64803e-002</D2>
#         <E> 3.6000e-002</E>
#         <Tau20> 1.9400</Tau20>
#         <H1>-3.3000e-002</H1>
#         <H2> 5.0000e+003</H2>
#         <H3> 1.4500e+003</H3>
#       </CalibrationCoefficients>
#     </OxygenSensor>
#   </sensor>
#   <sensor Channel="5" >
#     <!-- A/D voltage 1, PAR/Irradiance, Biospherical/Licor -->
#     <PAR_BiosphericalLicorChelseaSensor SensorID="42" >
#       <SerialNumber>70565</SerialNumber>
#       <CalibrationDate>06/23/14</CalibrationDate>
#       <M>1.00000000</M>
#       <B>0.00000000</B>
#       <CalibrationConstant>12077000000.00000000</CalibrationConstant>
#       <Multiplier>1.00000000</Multiplier>
#       <Offset>-0.08492398</Offset>
#     </PAR_BiosphericalLicorChelseaSensor>
#   </sensor>
#   <sensor Channel="6" >
#     <!-- Serial RS-232, Fluorometer, WET Labs ECO-AFL/FL -->
#     <FluoroWetlabECO_AFL_FL_Sensor SensorID="20" >
#       <SerialNumber>FLNTURT-3481</SerialNumber>
#       <CalibrationDate>5-Feb-14</CalibrationDate>
#       <ScaleFactor>1.81000000e-002</ScaleFactor>
#       <!-- Dark output -->
#       <Vblank>48.0000</Vblank>
#     </FluoroWetlabECO_AFL_FL_Sensor>
#   </sensor>
#   <sensor Channel="7" >
#     <!-- Serial RS-232, Turbidity Meter, WET Labs, ECO-NTU -->
#     <TurbidityMeter SensorID="67" >
#       <SerialNumber>FLNTURT-3481</SerialNumber>
#       <CalibrationDate>5-Feb-14</CalibrationDate>
#       <ScaleFactor>0.048500</ScaleFactor>
#       <!-- Dark output -->
#       <DarkVoltage>50.000000</DarkVoltage>
#     </TurbidityMeter>
#   </sensor>
#   <sensor Channel="8" >
#     <!-- Serial RS-232, Free -->
#   </sensor>
# </Sensors>
# datcnv_date = Aug 13 2015 16:50:13, 7.23.2 [datcnv_vars = 8]
# datcnv_in = C:\Users\User\Desktop\WorkingFolder\HEX\MON10_13Aug2015053.hex C:\Users\User\Desktop\WorkingFolder\19-7506-withPAR15.xmlcon
# datcnv_skipover = 0
# datcnv_ox_hysteresis_correction = yes
# datcnv_ox_tau_correction = yes
# file_type = ascii
*END*
          1     -0.650    16.5642   0.927237     0.6305     0.0181     9.1091 2.8350e+03  0.000e+00
          2     -0.650    16.5658   0.897628     0.7275     0.0362     9.1025 2.8221e+03  0.000e+00
          3     -0.650    16.5683   0.927237     0.7275     0.0181     9.1020 2.8216e+03  0.000e+00
          4     -0.650    16.5721   0.956847     0.7275     0.0362     9.1022 2.7876e+03  0.000e+00
          5     -0.648    16.5749   0.956847     0.5820     0.0362     9.0977 2.7890e+03  0.000e+00
          6     -0.650    16.5762   0.956847     0.5820     0.0724     9.1001 2.8400e+03  0.000e+00
          7     -0.650    16.5772   0.897628     0.6790    -0.0543     9.0992 2.8665e+03  0.000e+00
          8     -0.650    16.5783   0.897628     0.7275     0.0543     9.1022 2.8675e+03  0.000e+00
          9     -0.649    16.5796   0.927237     0.5335     0.0543     9.0998 2.8630e+03  0.000e+00
         10     -0.652    16.5807   0.956847     0.5335     0.0181     9.1028 2.8630e+03  0.000e+00
         11     -0.650    16.5817   0.956847     0.4850     0.0362     9.1008 2.8630e+03  0.000e+00
         12     -0.652    16.5825   0.927237     0.5820     0.0362     9.1025 2.8620e+03  0.000e+00
         13     -0.651    16.5832   0.897628     0.5820     0.0181     9.1028 2.8440e+03  0.000e+00
         14     -0.650    16.5840   0.897628     0.6305     0.0181     9.1035 2.8415e+03  0.000e+00
         15     -0.651    16.5847   0.897628     0.6790     0.0905     9.0993 2.8425e+03  0.000e+00
         16     -0.650    16.5855   0.956847     0.6790    -0.0362     9.1030 2.8405e+03  0.000e+00
         17     -0.651    16.5864   0.897628     0.4850     0.0362     9.1049 2.8440e+03  0.000e+00
         18     -0.649    16.5872   0.927237     0.6790     0.0543     9.1037 2.8460e+03  0.000e+00
         19     -0.649    16.5879   0.897628     0.6305     0.0362     9.1046 2.5362e+03  0.000e+00
         20     -0.652    16.5889   0.956847     0.6790     0.0362     9.1038 2.6781e+03  0.000e+00
         21     -0.651    16.5902   0.927237     0.5820    -0.0181     9.1013 2.8171e+03  0.000e+00
         22     -0.649    16.5911   0.897628     0.5335     0.0362     9.1006 2.7773e+03  0.000e+00
         23     -0.650    16.5920   0.956847     0.5820     0.0181     9.1005 2.8245e+03  0.000e+00
         24     -0.650    16.5929   0.897628     0.7275     0.0543     9.0999 2.8255e+03  0.000e+00
         25     -0.650    16.5937   0.897628     0.7275     0.0724     9.0986 2.8201e+03  0.000e+00
         26     -0.652    16.5945   0.897628     0.6305     0.0543     9.1016 2.8405e+03  0.000e+00
         27     -0.652    16.5955   0.897628     0.7275     0.0362     9.0998 2.8510e+03  0.000e+00
         28     -0.652    16.5966   0.897628     0.6790     0.0181     9.1009 2.8410e+03  0.000e+00
         29     -0.650    16.5975   0.838408     0.5820    -0.0181     9.1019 2.8400e+03  0.000e+00
         30     -0.651    16.5984   0.838408     0.6790     0.0543     9.1014 2.8315e+03  0.000e+00
         31     -0.651    16.5995   0.838408     0.5335     0.0362     9.0989 2.8320e+03  0.000e+00
         32     -0.651    16.6005   0.897628     0.6790     0.0181     9.0943 2.8535e+03  0.000e+00
         33     -0.651    16.6013   0.897628     0.5820     0.0181     9.0968 2.8560e+03  0.000e+00
         34     -0.652    16.6024   0.897628     0.4365     0.0362     9.0925 2.8610e+03  0.000e+00
         35     -0.651    16.6034   0.897628     0.7275     0.0000     9.0960 2.8756e+03  0.000e+00
         36     -0.650    16.6043   0.838408     0.5820     0.0362     9.0938 2.8990e+03  0.000e+00
         37     -0.651    16.6052   0.897628     0.6305     0.0000     9.0963 2.8898e+03  0.000e+00
         38     -0.650    16.6054   0.897628     0.6305     0.0362     9.0932 2.9343e+03  0.000e+00
         39     -0.653    16.6060   0.897628     0.5820     0.0724     9.0963 2.9534e+03  0.000e+00
         40     -0.653    16.6067   0.838408     0.6305     0.0181     9.0956 2.9847e+03  0.000e+00
         41     -0.652    16.6071   0.897628     0.4850     0.0181     9.0958 3.0270e+03  0.000e+00
         42     -0.652    16.6078   0.897628     0.7760     0.0362     9.0962 3.0419e+03  0.000e+00
         43     -0.651    16.6085   0.897628     0.6305     0.0000     9.0983 3.0704e+03  0.000e+00
         44     -0.651    16.6090   0.897628     0.6305     0.0362     9.0982 3.0904e+03  0.000e+00
         45     -0.649    16.6095   0.897628     0.5335     0.0181     9.0960 3.1073e+03  0.000e+00
         46     -0.651    16.6100   0.838408     0.5335     0.0362     9.0992 3.1286e+03  0.000e+00
         47     -0.652    16.6104   0.897628     0.5820    -0.0181     9.0976 3.1601e+03  0.000e+00
         48     -0.651    16.6103   0.838408     0.6305     0.0000     9.0997 3.1975e+03  0.000e+00
         49     -0.651    16.6097   0.897628     0.6305     0.0362     9.0952 3.2331e+03  0.000e+00
         50     -0.650    16.6091   0.897628     0.5335     0.0362     9.0984 3.2605e+03  0.000e+00
         51     -0.652    16.6088   0.838408     0.6790     0.0543     9.0976 3.2777e+03  0.000e+00
         52     -0.651    16.6083   0.897628     0.5335     0.0724     9.0986 3.3014e+03  0.000e+00
         53     -0.651    16.6079   0.897628     0.5820     0.0362     9.0975 3.3235e+03  0.000e+00
         54     -0.652    16.6069   0.897628     0.5820     0.0362     9.0939 3.3487e+03  0.000e+00
         55     -0.652    16.6061   0.838408     0.6305     0.0000     9.0954 3.3789e+03  0.000e+00
         56     -0.651    16.6053   0.897628     0.6790     0.0543     9.0937 3.4021e+03  0.000e+00
         57     -0.651    16.6046   0.838408     0.5820     0.0362     9.0942 3.4303e+03  0.000e+00
         58     -0.652    16.6039   0.838408     0.5820     0.0362     9.0930 3.4600e+03  0.000e+00
         59     -0.651    16.6034   0.779189     0.6305     0.0181     9.0963 3.4789e+03  0.000e+00
         60     -0.651    16.6026   0.897628     0.6305     0.0362     9.0948 3.4874e+03  0.000e+00
         61     -0.654    16.6022   0.897628     0.6790     0.0181     9.0963 3.5126e+03  0.000e+00
         62     -0.652    16.6017   0.838408     0.6790     0.0362     9.1000 3.5157e+03  0.000e+00
         63     -0.652    16.6013   0.897628     0.7275     0.0362     9.0975 3.5324e+03  0.000e+00
         64     -0.652    16.6008   0.838408     0.6790     0.0362     9.0974 3.5393e+03  0.000e+00
         65     -0.649    16.6001   0.838408     0.6305     0.0362     9.0982 3.5630e+03  0.000e+00
         66     -0.652    16.5998   0.838408     0.5820     0.0181     9.1009 3.5856e+03  0.000e+00
         67     -0.650    16.5994   0.838408     0.6790     0.0543     9.0960 3.6045e+03  0.000e+00
         68     -0.654    16.5992   0.838408     0.6305     0.0362     9.0970 3.6160e+03  0.000e+00
         69     -0.650    16.5991   0.897628     0.7275     0.0543     9.0961 3.6153e+03  0.000e+00
         70     -0.652    16.5988   0.897628     0.5820     0.0362     9.0972 3.6389e+03  0.000e+00
         71     -0.652    16.5984   0.779189     0.5820     0.0362     9.0978 3.6588e+03  0.000e+00
         72     -0.652    16.5977   0.838408     0.5820     0.0543     9.0986 3.6833e+03  0.000e+00
         73     -0.652    16.5975   0.838408     0.6305     0.0543     9.0980 3.7119e+03  0.000e+00
         74     -0.650    16.5975   0.838408     0.6790     0.0543     9.0974 3.7230e+03  0.000e+00
         75     -0.650    16.5975   0.838408     0.7275     0.0181     9.1012 3.7380e+03  0.000e+00
         76     -0.652    16.5973   0.838408     0.6790     0.0181     9.0977 3.7512e+03  0.000e+00
         77     -0.651    16.5973   0.897628     0.5820     0.0543     9.0963 3.7743e+03  0.000e+00
         78     -0.654    16.5975   0.838408     0.7275     0.0362     9.0969 3.7909e+03  0.000e+00
         79     -0.651    16.5972   0.838408     0.7275     0.0181     9.0952 3.7956e+03  0.000e+00
         80     -0.651    16.5970   0.838408     0.6305     0.0362     9.0930 3.8009e+03  0.000e+00
         81     -0.654    16.5969   0.838408     0.5820     0.0181     9.0971 3.8197e+03  0.000e+00
         82     -0.652    16.5966   0.838408     0.5820     0.0181     9.0961 3.8419e+03  0.000e+00
         83     -0.655    16.5966   0.779189     0.5820     0.0362     9.0928 3.8372e+03  0.000e+00
         84     -0.652    16.5968   0.838408     0.4850     0.0000     9.0961 3.7909e+03  0.000e+00
         85     -0.650    16.5967   0.838408     0.5820     0.0362     9.0968 3.7598e+03  0.000e+00
         86     -0.651    16.5966   0.838408     0.6790     0.0181     9.0953 3.7348e+03  0.000e+00
         87     -0.652    16.5964   0.838408     0.5335     0.0181     9.1013 3.7289e+03  0.000e+00
         88     -0.652    16.5963   0.838408     0.5820     0.0362     9.1005 3.7518e+03  0.000e+00
         89     -0.651    16.5964   0.838408     0.7275     0.0543     9.0958 3.7249e+03  0.000e+00
         90     -0.654    16.5965   0.897628     0.6790     0.0362     9.0958 3.7145e+03  0.000e+00
         91     -0.650    16.5964   0.897628     0.6305     0.0181     9.0954 3.7584e+03  0.000e+00
         92     -0.654    16.5967   0.838408     0.6790     0.0362     9.0964 3.7710e+03  0.000e+00
         93     -0.652    16.5973   0.838408     0.6790    -0.0181     9.0970 3.7499e+03  0.000e+00
         94     -0.651    16.5978   0.838408     0.6790     0.0362     9.0958 3.7190e+03  0.000e+00
         95     -0.652    16.5978   0.838408     0.6790     0.0362     9.0934 3.6995e+03  0.000e+00
         96     -0.652    16.5979   0.897628     0.7275     0.0362     9.0958 3.6995e+03  0.000e+00
         97     -0.652    16.5978   0.838408     0.6790     0.0362     9.0949 3.7060e+03  0.000e+00
         98     -0.650    16.5978   0.897628     0.5820     0.0543     9.0959 3.7053e+03  0.000e+00
         99     -0.652    16.5978   0.838408     0.5820     0.0362     9.0938 3.7164e+03  0.000e+00
        100     -0.650    16.5977   0.838408     0.6305     0.0181     9.0957 3.7190e+03  0.000e+00
        101     -0.652    16.5977   0.838408     0.6305     0.0362     9.0882 3.6729e+03  0.000e+00
        102     -0.654    16.5977   0.838408     0.5820     0.0181     9.0947 3.6287e+03  0.000e+00
        103     -0.652    16.5979   0.897628     0.5335     0.0362     9.0938 3.5951e+03  0.000e+00
        104     -0.650    16.5980   0.838408     0.6305     0.0543     9.0953 3.5480e+03  0.000e+00
        105     -0.651    16.5981   0.838408     0.6790    -0.0362     9.0988 3.3165e+03  0.000e+00
        106     -0.650    16.5982   0.838408     0.5820     0.0181     9.0958 3.5517e+03  0.000e+00
        107     -0.651    16.5981   0.838408     0.7760     0.0362     9.0966 2.5259e+03  0.000e+00
        108     -0.654    16.5983   0.838408     0.7760     0.0000     9.0955 1.1062e+03  0.000e+00
        109     -0.652    16.5983   0.838408     0.6790    -0.0362     9.0989 9.1514e+02  0.000e+00
        110     -0.651    16.5984   0.779189     0.0000     0.0362     9.0909 9.2712e+02  0.000e+00
        111     -0.651    16.5999   0.838408     0.0000     0.0362     9.0933 1.5259e+03  0.000e+00
        112     -0.650    16.6043   0.897628     0.0000     0.0362     9.0911 2.5348e+03  0.000e+00
        113     -0.650    16.6091   0.838408     0.0000     0.0362     9.0924 3.9237e+03  0.000e+00
