* Sea-Bird SBE19plus Data File:
* FileName = C:\Users\User\Desktop\WorkingFolder\HEX\MON10_13Aug2015052.hex
* Software Version 1.59
* Temperature SN =  7506
* Conductivity SN =  7506
* System UpLoad Time = Aug 13 2015 16:21:58
* ds
* SBE 19plus V 2.5.2  SERIAL NO. 7506    13 Aug 2015 16:14:43
* vbatt = 11.6, vlith =  8.6, ioper =  61.0 ma, ipump =  64.5 ma,
* iext01 =   5.6 ma, iext2345 =   3.3 ma, iserial =  27.8 ma
* status = not logging
* number of scans to average = 1
* samples = 195650, free = 2937594, casts = 68
* mode = profile, minimum cond freq = 0, pump delay = 75 sec
* autorun = no, ignore magnetic switch = no
* battery type = alkaline, battery cutoff =  7.5 volts
* pressure sensor = strain gauge, range = 508.0
* SBE 38 = no, WETLABS = yes, OPTODE = no, SBE63 = no, Gas Tension Device = no
* Ext Volt 0 = yes, Ext Volt 1 = no
* Ext Volt 2 = yes, Ext Volt 3 = no
* Ext Volt 4 = no, Ext Volt 5 = no
* echo characters = yes
* output format = raw HEX

* S>
*
* SBE 19plus V 2.5.2  SERIAL NO. 7506    13 Aug 2015 16:15:02
* temperature:  26-Jun-14
*     TA0 = 1.261374e-03
*     TA1 = 2.712933e-04
*     TA2 = -8.461344e-07
*     TA3 = 1.733276e-07
*     TOFFSET = 0.000000e+00
* conductivity:  26-Jun-14
*     G = -9.792998e-01
*     H = 1.471061e-01
*     I = -2.352037e-04
*     J = 3.954140e-05
*     CPCOR = -9.570000e-08
*     CTCOR = 3.250000e-06
*     CSLOPE = 1.000000e+00
* pressure S/N = 4157547, range = 508 psia:  20-Jun-14
*     PA0 = 1.321742e-01
*     PA1 = 1.547028e-03
*     PA2 = 7.529256e-12
*     PTCA0 = 5.274062e+05
*     PTCA1 = 6.817428e+00
*     PTCA2 = -1.369143e-01
*     PTCB0 = 2.521837e+01
*     PTCB1 = -3.250000e-04
*     PTCB2 = 0.000000e+00
*     PTEMPA0 = -7.054527e+01
*     PTEMPA1 = 5.028533e+01
*     PTEMPA2 = -2.206998e-01
*     POFFSET = 0.000000e+00
* volt 0: offset = -4.618527e-02, slope = 1.250448e+00
* volt 1: offset = -4.556105e-02, slope = 1.250200e+00
* volt 2: offset = -4.548842e-02, slope = 1.249971e+00
* volt 3: offset = -4.587053e-02, slope = 1.250295e+00
* volt 4: offset = -4.544105e-02, slope = 1.251388e+00
* volt 5: offset = -4.670421e-02, slope = 1.249342e+00
*     EXTFREQSF = 9.999918e-01
* dh
* cast  52 12 Aug 2015 09:31:04 samples 153577 to 155284, avg = 1, stop = mag switch

* S>
# nquan = 9
# nvalues = 1708                                  
# units = specified
# name 0 = scan: Scan Count
# name 1 = prdM: Pressure, Strain Gauge [db]
# name 2 = tv290C: Temperature [ITS-90, deg C]
# name 3 = c0uS/cm: Conductivity [uS/cm]
# name 4 = turbWETntu0: Turbidity, WET Labs ECO [NTU]
# name 5 = flECO-AFL: Fluorescence, WET Labs ECO-AFL/FL [mg/m^3]
# name 6 = sbeox0Mg/L: Oxygen, SBE 43 [mg/l]
# name 7 = par: PAR/Irradiance, Biospherical/Licor
# name 8 = flag:  0.000e+00
# span 0 =          1,       1708                 
# span 1 =     -0.648,     37.181                 
# span 2 =    12.5436,    19.6221                 
# span 3 =   1.785928,  86.566696                 
# span 4 =   -11.3490,    18.2360                 
# span 5 =    -3.0951,     8.3984                 
# span 6 =     5.5706,    10.4521                 
# span 7 = 1.0000e-12, 3.4183e+03                 
# span 8 = 0.0000e+00, 0.0000e+00                 
# interval = seconds: 0.25
# start_time = Aug 12 2015 09:31:04 [Instrument's time stamp, header]
# bad_flag = -9.990e-29
# <Sensors count="8" >
#   <sensor Channel="1" >
#     <!-- Count, Temperature -->
#     <TemperatureSensor SensorID="58" >
#       <SerialNumber>7506</SerialNumber>
#       <CalibrationDate>26-Jun-14</CalibrationDate>
#       <A0>1.26137383e-003</A0>
#       <A1>2.71293306e-004</A1>
#       <A2>-8.46134365e-007</A2>
#       <A3>1.73327598e-007</A3>
#       <Slope>1.00000000</Slope>
#       <Offset>0.0000</Offset>
#     </TemperatureSensor>
#   </sensor>
#   <sensor Channel="2" >
#     <!-- Frequency 0, Conductivity -->
#     <ConductivitySensor SensorID="3" >
#       <SerialNumber>7506</SerialNumber>
#       <CalibrationDate>26-Jun-14</CalibrationDate>
#       <UseG_J>1</UseG_J>
#       <!-- Cell const and series R are applicable only for wide range sensors. -->
#       <SeriesR>0.0000</SeriesR>
#       <CellConst>2000.0000</CellConst>
#       <ConductivityType>0</ConductivityType>
#       <Coefficients equation="0" >
#         <A>0.00000000e+000</A>
#         <B>0.00000000e+000</B>
#         <C>0.00000000e+000</C>
#         <D>0.00000000e+000</D>
#         <M>0.0</M>
#         <CPcor>-9.57000000e-008</CPcor>
#       </Coefficients>
#       <Coefficients equation="1" >
#         <G>-9.79299780e-001</G>
#         <H>1.47106091e-001</H>
#         <I>-2.35203711e-004</I>
#         <J>3.95414013e-005</J>
#         <CPcor>-9.57000000e-008</CPcor>
#         <CTcor>3.2500e-006</CTcor>
#         <!-- WBOTC not applicable unless ConductivityType = 1. -->
#         <WBOTC>0.00000000e+000</WBOTC>
#       </Coefficients>
#       <Slope>1.00000000</Slope>
#       <Offset>0.00000</Offset>
#     </ConductivitySensor>
#   </sensor>
#   <sensor Channel="3" >
#     <!-- Count, Pressure, Strain Gauge -->
#     <PressureSensor SensorID="46" >
#       <SerialNumber>7506</SerialNumber>
#       <CalibrationDate>20-Jun-14</CalibrationDate>
#       <PA0>1.32174204e-001</PA0>
#       <PA1>1.54702776e-003</PA1>
#       <PA2>7.52925639e-012</PA2>
#       <PTEMPA0>-7.05452734e+001</PTEMPA0>
#       <PTEMPA1>5.02853344e+001</PTEMPA1>
#       <PTEMPA2>-2.20699827e-001</PTEMPA2>
#       <PTCA0>5.27406123e+005</PTCA0>
#       <PTCA1>6.81742828e+000</PTCA1>
#       <PTCA2>-1.36914336e-001</PTCA2>
#       <PTCB0>2.52183750e+001</PTCB0>
#       <PTCB1>-3.25000000e-004</PTCB1>
#       <PTCB2>0.00000000e+000</PTCB2>
#       <Offset>0.000000</Offset>
#     </PressureSensor>
#   </sensor>
#   <sensor Channel="4" >
#     <!-- A/D voltage 0, Oxygen, SBE 43 -->
#     <OxygenSensor SensorID="38" >
#       <SerialNumber>2911</SerialNumber>
#       <CalibrationDate>27-Jun-14</CalibrationDate>
#       <Use2007Equation>1</Use2007Equation>
#       <CalibrationCoefficients equation="0" >
#         <!-- Coefficients for Owens-Millard equation. -->
#         <Boc>0.0000</Boc>
#         <Soc>0.0000e+000</Soc>
#         <offset>0.0000</offset>
#         <Pcor>0.00e+000</Pcor>
#         <Tcor>0.0000</Tcor>
#         <Tau>0.0</Tau>
#       </CalibrationCoefficients>
#       <CalibrationCoefficients equation="1" >
#         <!-- Coefficients for Sea-Bird equation - SBE calibration in 2007 and later. -->
#         <Soc>3.5354e-001</Soc>
#         <offset>-0.5145</offset>
#         <A>-2.1770e-003</A>
#         <B> 1.4331e-004</B>
#         <C>-2.5457e-006</C>
#         <D0> 2.5826e+000</D0>
#         <D1> 1.92634e-004</D1>
#         <D2>-4.64803e-002</D2>
#         <E> 3.6000e-002</E>
#         <Tau20> 1.9400</Tau20>
#         <H1>-3.3000e-002</H1>
#         <H2> 5.0000e+003</H2>
#         <H3> 1.4500e+003</H3>
#       </CalibrationCoefficients>
#     </OxygenSensor>
#   </sensor>
#   <sensor Channel="5" >
#     <!-- A/D voltage 1, PAR/Irradiance, Biospherical/Licor -->
#     <PAR_BiosphericalLicorChelseaSensor SensorID="42" >
#       <SerialNumber>70565</SerialNumber>
#       <CalibrationDate>06/23/14</CalibrationDate>
#       <M>1.00000000</M>
#       <B>0.00000000</B>
#       <CalibrationConstant>12077000000.00000000</CalibrationConstant>
#       <Multiplier>1.00000000</Multiplier>
#       <Offset>-0.08492398</Offset>
#     </PAR_BiosphericalLicorChelseaSensor>
#   </sensor>
#   <sensor Channel="6" >
#     <!-- Serial RS-232, Fluorometer, WET Labs ECO-AFL/FL -->
#     <FluoroWetlabECO_AFL_FL_Sensor SensorID="20" >
#       <SerialNumber>FLNTURT-3481</SerialNumber>
#       <CalibrationDate>5-Feb-14</CalibrationDate>
#       <ScaleFactor>1.81000000e-002</ScaleFactor>
#       <!-- Dark output -->
#       <Vblank>48.0000</Vblank>
#     </FluoroWetlabECO_AFL_FL_Sensor>
#   </sensor>
#   <sensor Channel="7" >
#     <!-- Serial RS-232, Turbidity Meter, WET Labs, ECO-NTU -->
#     <TurbidityMeter SensorID="67" >
#       <SerialNumber>FLNTURT-3481</SerialNumber>
#       <CalibrationDate>5-Feb-14</CalibrationDate>
#       <ScaleFactor>0.048500</ScaleFactor>
#       <!-- Dark output -->
#       <DarkVoltage>50.000000</DarkVoltage>
#     </TurbidityMeter>
#   </sensor>
#   <sensor Channel="8" >
#     <!-- Serial RS-232, Free -->
#   </sensor>
# </Sensors>
# datcnv_date = Aug 13 2015 16:50:13, 7.23.2 [datcnv_vars = 8]
# datcnv_in = C:\Users\User\Desktop\WorkingFolder\HEX\MON10_13Aug2015052.hex C:\Users\User\Desktop\WorkingFolder\19-7506-withPAR15.xmlcon
# datcnv_skipover = 0
# datcnv_ox_hysteresis_correction = yes
# datcnv_ox_tau_correction = yes
# file_type = ascii
*END*
          1     -0.643    18.2523   2.170873     0.5335     0.1086     8.8058 3.3558e+03  0.000e+00
          2     -0.644    18.2503   2.111650     0.5335     0.0362     8.8085 3.3588e+03  0.000e+00
          3     -0.644    18.2468   2.170873     0.5820     0.0181     8.8058 3.3641e+03  0.000e+00
          4     -0.643    18.2450   2.170873     0.5820     0.0362     8.8004 3.3564e+03  0.000e+00
          5     -0.644    18.2460   2.082039     0.7760    -0.0181     8.7988 3.3552e+03  0.000e+00
          6     -0.643    18.2473   2.170873     0.6305     0.1086     8.7966 3.3558e+03  0.000e+00
          7     -0.644    18.2485   2.111650     0.7275     0.0000     8.7928 3.3599e+03  0.000e+00
          8     -0.644    18.2497   2.111650     0.6305     0.0543     8.7940 3.3499e+03  0.000e+00
          9     -0.644    18.2506   2.111650     0.4365     0.0362     8.7925 3.3576e+03  0.000e+00
         10     -0.643    18.2509   2.111650     0.8245     0.0181     8.7932 3.3493e+03  0.000e+00
         11     -0.643    18.2514   2.082039     0.5335     0.0000     8.7977 3.3546e+03  0.000e+00
         12     -0.646    18.2510   2.111650     0.4850    -0.0181     8.7987 3.3552e+03  0.000e+00
         13     -0.645    18.2487   2.082039     0.7275     0.0362     8.7974 3.3440e+03  0.000e+00
         14     -0.643    18.2478   2.082039     0.5335     0.0000     8.8028 3.3458e+03  0.000e+00
         15     -0.643    18.2467   2.082039     0.7760     0.0362     8.8011 3.3529e+03  0.000e+00
         16     -0.644    18.2410   2.082039     0.5820     0.0543     8.8006 3.3511e+03  0.000e+00
         17     -0.645    18.2363   2.022817     0.4365     0.0362     8.8011 3.3546e+03  0.000e+00
         18     -0.644    18.2343   2.022817     0.5335     0.0724     8.8048 3.3676e+03  0.000e+00
         19     -0.643    18.2347   2.022817     0.6305     0.0543     8.8072 3.3747e+03  0.000e+00
         20     -0.643    18.2342   2.082039     0.7760     0.0724     8.8157 3.3890e+03  0.000e+00
         21     -0.645    18.2336   2.022817     0.7275     0.0724     8.8140 3.3937e+03  0.000e+00
         22     -0.644    18.2340   2.022817     0.4365     0.0543     8.8197 3.3902e+03  0.000e+00
         23     -0.644    18.2352   2.022817     0.7275     0.0543     8.8242 3.3860e+03  0.000e+00
         24     -0.644    18.2365   2.022817     0.5335     0.0000     8.8275 3.3860e+03  0.000e+00
         25     -0.644    18.2378   2.022817     0.5820    -0.0181     8.8314 3.3830e+03  0.000e+00
         26     -0.645    18.2393   2.022817     0.6790     0.0905     8.8302 3.3896e+03  0.000e+00
         27     -0.645    18.2405   2.022817     0.5335     0.0362     8.8347 3.3914e+03  0.000e+00
         28     -0.646    18.2418   2.082039     0.6790     0.0543     8.8350 3.3908e+03  0.000e+00
         29     -0.645    18.2441   2.022817     0.5335     0.0543     8.8372 3.3848e+03  0.000e+00
         30     -0.645    18.2466   2.022816     0.5335     0.0724     8.8328 3.3783e+03  0.000e+00
         31     -0.646    18.2493   1.963594     0.5820     0.0362     8.8313 3.3759e+03  0.000e+00
         32     -0.643    18.2516   2.022816     0.6305     0.0181     8.8214 3.3735e+03  0.000e+00
         33     -0.645    18.2536   1.993205     0.5335     0.0362     8.8212 3.3771e+03  0.000e+00
         34     -0.644    18.2546   1.963594     0.6790     0.0362     8.8152 3.3848e+03  0.000e+00
         35     -0.645    18.2556   2.022816     0.4850     0.0362     8.8127 3.3854e+03  0.000e+00
         36     -0.644    18.2574   2.022816     0.5820     0.0362     8.8124 3.3914e+03  0.000e+00
         37     -0.644    18.2593   2.022816     0.4850     0.0362     8.8154 3.3878e+03  0.000e+00
         38     -0.645    18.2617   1.963594     0.5335    -0.0362     8.8172 3.3890e+03  0.000e+00
         39     -0.646    18.2636   1.993205     0.5335     0.0181     8.8122 3.3902e+03  0.000e+00
         40     -0.646    18.2653   1.963594     0.5820     0.0181     8.8191 3.3902e+03  0.000e+00
         41     -0.646    18.2671   1.963594     0.4850     0.0724     8.8197 3.3902e+03  0.000e+00
         42     -0.645    18.2685   2.022816     0.4850     0.0543     8.8214 3.3854e+03  0.000e+00
         43     -0.643    18.2700   1.963594     0.5820     0.0905     8.8193 3.3836e+03  0.000e+00
         44     -0.646    18.2717   1.993205     0.5820     0.0362     8.8139 3.3836e+03  0.000e+00
         45     -0.646    18.2732   1.963594     0.6305     0.0543     8.8148 3.3807e+03  0.000e+00
         46     -0.645    18.2742   1.904372     0.6790     0.1086     8.8181 3.3807e+03  0.000e+00
         47     -0.644    18.2758   1.993205     0.7275     0.0181     8.8202 3.3813e+03  0.000e+00
         48     -0.644    18.2782   1.963594     0.4850     0.0181     8.8167 3.3712e+03  0.000e+00
         49     -0.646    18.2813   1.963594     0.4850     0.0543     8.8136 3.3676e+03  0.000e+00
         50     -0.644    18.2840   1.933983     0.5820     0.0181     8.8111 3.3741e+03  0.000e+00
         51     -0.646    18.2864   1.963594     0.4365     0.0181     8.8064 3.3735e+03  0.000e+00
         52     -0.645    18.2887   1.963594     0.6790     0.0181     8.8091 3.3753e+03  0.000e+00
         53     -0.645    18.2915   1.993205     0.5820     0.0181     8.8022 3.3866e+03  0.000e+00
         54     -0.645    18.2941   1.904372     0.5335     0.0362     8.8005 3.3854e+03  0.000e+00
         55     -0.644    18.2967   1.963594     0.4365     0.0181     8.7949 3.3860e+03  0.000e+00
         56     -0.646    18.2994   1.933983     0.5335     0.0181     8.7907 3.3866e+03  0.000e+00
         57     -0.645    18.3017   1.904372     0.6305     0.0000     8.7912 3.3724e+03  0.000e+00
         58     -0.644    18.3042   1.963594     0.4850     0.0181     8.7881 3.3813e+03  0.000e+00
         59     -0.645    18.3066   1.933983     0.6790     0.0362     8.7927 3.3824e+03  0.000e+00
         60     -0.646    18.3083   1.904372     0.5335     0.0905     8.7922 3.3920e+03  0.000e+00
         61     -0.646    18.3100   1.904372     0.5335     0.0000     8.7920 3.4183e+03  0.000e+00
         62     -0.647    18.3118   1.933983     0.6305     0.1267     8.7993 3.3890e+03  0.000e+00
         63     -0.646    18.3126   1.963594     0.7760     0.0000     8.7982 3.3747e+03  0.000e+00
         64     -0.645    18.3143   1.963594     0.6790     0.0362     8.7993 3.3848e+03  0.000e+00
         65     -0.645    18.3162   1.993205     0.7275     0.0181     8.8016 3.3937e+03  0.000e+00
         66     -0.645    18.3178   1.845150     0.6790    -0.0724     8.8013 3.3955e+03  0.000e+00
         67     -0.644    18.3198   1.963594     0.6305     0.0543     8.8018 3.3866e+03  0.000e+00
         68     -0.646    18.3220   1.933983     0.6305     0.0362     8.8015 3.3961e+03  0.000e+00
         69     -0.648    18.3241   1.904372     0.6305     0.1086     8.8073 3.3973e+03  0.000e+00
         70     -0.647    18.3265   1.904372     0.5820    -0.0181     8.8044 3.3967e+03  0.000e+00
         71     -0.646    18.3287   1.933983     0.5335     0.0543     8.8081 3.3991e+03  0.000e+00
         72     -0.646    18.3308   1.904371     0.7275     0.0000     8.8101 3.4027e+03  0.000e+00
         73     -0.643    18.3329   1.845150     0.3395     0.0181     8.8162 3.4081e+03  0.000e+00
         74     -0.645    18.3350   1.874760     0.7275     0.0362     8.8178 3.4099e+03  0.000e+00
         75     -0.647    18.3368   1.845149     0.8245     0.0362     8.8244 3.4099e+03  0.000e+00
         76     -0.645    18.3388   1.874760     0.5820     0.0000     8.8251 3.4027e+03  0.000e+00
         77     -0.646    18.3414   1.904371     0.5820     0.0362     8.8256 3.3765e+03  0.000e+00
         78     -0.646    18.3442   1.904371     0.5820     0.0724     8.8316 3.3358e+03  0.000e+00
         79     -0.645    18.3463   1.874760     0.5820     0.0543     8.8374 3.3066e+03  0.000e+00
         80     -0.646    18.3480   1.845149     0.3395     0.0000     8.8357 3.2634e+03  0.000e+00
         81     -0.646    18.3498   1.904371     0.0000     0.0362     8.8365 3.1646e+03  0.000e+00
         82     -0.646    18.3515   1.874760     0.6790     0.0362     8.8411 3.0451e+03  0.000e+00
         83     -0.644    18.3531   1.904371     0.4850     0.0181     8.8356 2.9395e+03  0.000e+00
         84     -0.647    18.3549   1.904371     0.5820     0.0362     8.8396 2.8731e+03  0.000e+00
         85     -0.647    18.3566   1.874760     0.7275     0.0000     8.8349 2.8067e+03  0.000e+00
         86     -0.645    18.3578   1.845149     0.0000     0.0362     8.8322 2.7008e+03  0.000e+00
         87     -0.647    18.3597   1.904371     0.0000     0.0362     8.8288 2.6080e+03  0.000e+00
         88     -0.648    18.3610   1.874760     0.0000     0.0362     8.8286 2.4306e+03  0.000e+00
         89     -0.647    18.3624   1.904371     0.0000     0.0362     8.8287 2.3160e+03  0.000e+00
         90     -0.646    18.3639   1.904371     0.0000     0.0362     8.8270 2.2728e+03  0.000e+00
         91     -0.644    18.3652   1.874760     0.0000     0.0362     8.8268 2.2490e+03  0.000e+00
         92     -0.645    18.3665   1.904371     0.0000     0.0362     8.8255 2.1978e+03  0.000e+00
         93     -0.646    18.3676   1.845149     0.0000     0.0362     8.8266 2.1478e+03  0.000e+00
         94     -0.646    18.3677   1.933982     0.0000     0.0362     8.8237 2.1320e+03  0.000e+00
         95     -0.646    18.3676   1.904371     0.5820     0.0000     8.8207 2.1362e+03  0.000e+00
         96     -0.646    18.3680   1.845149     1.1640    -0.0543     8.8235 2.1396e+03  0.000e+00
         97     -0.645    18.3690   1.845149     0.5335     0.0724     8.8186 2.1377e+03  0.000e+00
         98     -0.645    18.3702   1.845149     0.5335     0.0543     8.8186 2.1305e+03  0.000e+00
         99     -0.644    18.3710   1.845149     0.4850     0.0724     8.8199 2.1577e+03  0.000e+00
        100     -0.646    18.3719   1.874760     0.4365     0.1086     8.8176 2.1524e+03  0.000e+00
        101     -0.646    18.3730   1.845149     0.8730     0.0543     8.8182 1.2050e+03  0.000e+00
        102     -0.644    18.3740   1.785928     0.6790     0.0724     8.8169 8.5364e+02  0.000e+00
        103     -0.645    18.3744   1.874760     0.6790     0.0543     8.8122 8.6542e+02  0.000e+00
        104     -0.645    18.3740   1.845149     0.6790     0.0362     8.8124 7.7283e+02  0.000e+00
        105     -0.646    18.3735   1.963593     0.6790     0.0724     8.8121 7.1811e+02  0.000e+00
        106     -0.645    18.3735   2.230095     0.5820     0.0362     8.8101 7.8529e+02  0.000e+00
        107     -0.645    18.3732   2.555824     0.4850    -0.2715     8.8127 7.9013e+02  0.000e+00
        108     -0.646    18.3737   2.822334     0.0000     0.0362     8.8147 7.2241e+02  0.000e+00
        109     -0.643    18.3748   2.881559     0.0000     0.0362     8.8135 8.8759e+02  0.000e+00
        110     -0.645    18.3773   2.763110     0.0000     0.0362     8.8127 1.2941e+03  0.000e+00
        111     -0.646    18.3817   2.792722     0.0000     0.0362     8.8132 1.0766e+03  0.000e+00
        112     -0.646    18.3857   2.763109     0.0000     0.0362     8.8169 9.4090e+02  0.000e+00
        113     -0.646    18.3887   2.763109     0.0000     0.0362     8.8181 7.9865e+02  0.000e+00
